File: Anna_PLots/output_files/CH4(anode)_H2, ref@cath.csv
,E_grad,Ewe/V,I_grad,i/mAcm^-2_geom,time_stamp
0,1.31769e-07,0.131056,0.000422187,0.0477571,3.5876
1,8.16123e-08,0.299742,-0.00022107,0.3209,604.588
2,6.52294e-08,0.349634,-0.000106125,0.31497,1203.59
3,4.92773e-09,0.39973,-0.000364958,0.439279,1803.59
4,-7.27551e-08,0.449769,2.64374e-05,0.437278,2403.59
5,-3.15277e-08,0.499687,9.65956e-05,0.480143,3003.59
6,2.33864e-07,0.549718,-0.000147953,0.429239,3603.59
7,5.73164e-08,0.59985,-0.000286786,0.475878,4203.59
8,5.80228e-08,0.649616,0.000164692,0.509777,4803.59
9,-1.80914e-08,0.699551,4.67216e-06,0.607939,5403.59
10,-5.64842e-08,0.749661,5.79913e-05,0.838003,6004.59
11,-1.14807e-07,0.799666,1.57307e-05,0.938577,6604.59
12,-9.59287e-08,0.74962,0.000142907,0.864149,7203.59
13,1.14664e-07,0.699533,-0.000100949,0.654939,7803.59
14,-7.29967e-08,0.649607,-1.36929e-05,0.517967,8403.59
15,-7.74324e-08,0.599838,3.36035e-05,0.448912,9003.59
16,-1.3592e-07,0.549712,0.00023439,0.443536,9603.59
17,2.71383e-07,0.499683,-0.000393198,0.412896,10203.6
18,1.02422e-07,0.44975,-0.000454883,0.446625,10803.6
19,-7.30281e-09,0.399699,8.00658e-06,0.364879,11403.6
20,-1.33932e-07,0.349621,-0.000144243,0.433044,12003.6
21,1.68106e-07,0.299724,0.000261282,0.314333,12603.6
22,2.38295e-08,0.131034,2.72491e-05,0.0506813,13204.6