File: Anna_PLots/output_files/N2(anode)_H2, ref@cath.csv
,E_grad,Ewe/V,I_grad,i/mAcm^-2_geom,time_stamp
0,-1.73903e-07,0.586796,5.21612e-05,-0.130303,3.3386
1,6.01534e-08,0.299658,7.08757e-05,-0.241279,604.339
2,-1.33769e-07,0.349481,-2.95483e-05,-0.223354,1203.34
3,1.83723e-07,0.399637,-0.000110589,-0.216062,1803.34
4,-5.13119e-08,0.449738,-5.48896e-05,-0.197874,2403.34
5,4.89814e-08,0.499564,5.88805e-05,-0.191744,3003.34
6,-5.76855e-08,0.549683,2.73268e-05,-0.153288,3603.34
7,-9.75355e-08,0.599687,5.00337e-05,-0.0858286,4203.34
8,-3.25335e-07,0.649598,-0.000114407,-0.014306,4803.34
9,-3.76477e-08,0.699384,6.46351e-05,0.147489,5403.34
10,-7.49106e-08,0.749393,6.89031e-05,0.37357,6003.34
11,-7.68583e-08,0.799617,-7.82816e-05,0.508008,6603.34
12,1.92721e-07,0.749436,6.52396e-05,0.396229,7203.34
13,-4.66022e-08,0.699536,9.90529e-05,0.22696,7803.34
14,9.7892e-08,0.649597,4.79528e-05,0.0534774,8403.34
15,-9.65454e-08,0.599685,-1.91286e-05,-0.0795671,9003.34
16,2.89549e-07,0.549701,5.58597e-05,-0.143295,9603.34
17,-1.79172e-07,0.499518,-1.42986e-05,-0.165159,10203.3
18,1.12907e-07,0.449735,7.88552e-05,-0.195268,10803.4
19,-2.35547e-07,0.399651,-2.02592e-05,-0.205044,11403.3
20,1.19028e-07,0.349453,4.7024e-06,-0.212854,12003.3
21,-5.27784e-08,0.299639,-4.88828e-05,-0.213093,12603.3
22,3.00989e-07,0.586746,-0.000139009,-0.105033,13204.3